CHANNEL,INPUT [mV]
1,-0.115
2,0.15
3,0.415
4,0.681
5,0.946
6,1.211
7,1.476
8,1.741
9,2.007
10,2.272
11,2.537
12,2.802
13,3.068
14,3.333
15,3.598
16,3.863
17,4.129
18,4.394
19,4.659
20,4.924
21,5.189
22,5.455
23,5.72
24,5.985
25,6.25
26,6.516
27,6.781
28,7.046
29,7.311
30,7.576
31,7.842
32,8.107
33,8.372
34,8.637
35,8.903
36,9.168
37,9.433
38,9.698
39,9.964
40,10.229
41,10.494
42,10.759
43,11.024
44,11.29
45,11.555
46,11.82
47,12.085
48,12.351
49,12.616
50,12.881
51,13.146
52,13.412
53,13.677
54,13.942
55,14.207
56,14.472
57,14.738
58,15.003
59,15.268
60,15.533
61,15.799
62,16.064
63,16.329
64,16.594
65,16.86
66,17.125
67,17.39
68,17.655
69,17.92
70,18.186
71,18.451
72,18.716
73,18.981
74,19.247
75,19.512
76,19.777
77,20.042
78,20.307
79,20.573
80,20.838
81,21.103
82,21.368
83,21.634
84,21.899
85,22.164
86,22.429
87,22.695
88,22.96
89,23.225
90,23.49
91,23.755
92,24.021
93,24.286
94,24.551
95,24.816
96,25.082
97,25.347
98,25.612
99,25.877
100,26.143
101,26.408
102,26.673
103,26.938
104,27.203
105,27.469
106,27.734
107,27.999
108,28.264
109,28.53
110,28.795
111,29.06
112,29.325
113,29.591
114,29.856
115,30.121
116,30.386
117,30.651
118,30.917
119,31.182
120,31.447
121,31.712
122,31.978
123,32.243
124,32.508
125,32.773
126,33.038
127,33.304
128,33.569
129,33.834
130,34.099
131,34.365
132,34.63
133,34.895
134,35.16
135,35.426
136,35.691
137,35.956
138,36.221
139,36.486
140,36.752
141,37.017
142,37.282
143,37.547
144,37.813
145,38.078
146,38.343
147,38.608
148,38.874
149,39.139
150,39.404
151,39.669
152,39.934
153,40.2
154,40.465
155,40.73
156,40.995
157,41.261
158,41.526
159,41.791
160,42.056
161,42.322
162,42.587
163,42.852
164,43.117
165,43.382
166,43.648
167,43.913
168,44.178
169,44.443
170,44.709
171,44.974
172,45.239
173,45.504
174,45.769
175,46.035
176,46.3
177,46.565
178,46.83
179,47.096
180,47.361
181,47.626
182,47.891
183,48.157
184,48.422
185,48.687
186,48.952
187,49.217
188,49.483
189,49.748
190,50.013
191,50.278
192,50.544
193,50.809
194,51.074
195,51.34
196,51.605
197,51.87
198,52.135
199,52.401
200,52.666
201,52.931
202,53.196
203,53.462
204,53.727
205,53.992
206,54.258
207,54.523
208,54.788
209,55.053
210,55.319
211,55.584
212,55.849
213,56.115
214,56.38
215,56.645
216,56.91
217,57.176
218,57.441
219,57.706
220,57.971
221,58.237
222,58.502
223,58.767
224,59.033
225,59.298
226,59.563
227,59.828
228,60.094
229,60.359
230,60.624
231,60.89
232,61.155
233,61.42
234,61.685
235,61.951
236,62.216
237,62.481
238,62.746
239,63.012
240,63.277
241,63.542
242,63.808
243,64.073
244,64.338
245,64.603
246,64.869
247,65.134
248,65.399
249,65.664
250,65.93
251,66.195
252,66.46
253,66.726
254,66.991
255,67.256
256,67.521
257,67.787
258,68.052
259,68.317
260,68.583
261,68.848
262,69.113
263,69.378
264,69.644
265,69.909
266,70.174
267,70.439
268,70.705
269,70.97
270,71.235
271,71.501
272,71.766
273,72.031
274,72.296
275,72.562
276,72.827
277,73.092
278,73.358
279,73.623
280,73.888
281,74.153
282,74.419
283,74.684
284,74.949
285,75.214
286,75.48
287,75.745
288,76.01
289,76.276
290,76.541
291,76.806
292,77.071
293,77.337
294,77.602
295,77.867
296,78.132
297,78.398
298,78.663
299,78.928
300,79.194
301,79.459
302,79.724
303,79.989
304,80.255
305,80.52
306,80.785
307,81.051
308,81.316
309,81.581
310,81.846
311,82.112
312,82.377
313,82.642
314,82.907
315,83.173
316,83.438
317,83.703
318,83.969
319,84.234
320,84.499
321,84.764
322,85.03
323,85.295
324,85.56
325,85.826
326,86.091
327,86.356
328,86.621
329,86.887
330,87.152
331,87.417
332,87.682
333,87.948
334,88.213
335,88.478
336,88.744
337,89.009
338,89.274
339,89.539
340,89.805
341,90.07
342,90.335
343,90.6
344,90.866
345,91.131
346,91.396
347,91.662
348,91.927
349,92.192
350,92.457
351,92.723
352,92.988
353,93.253
354,93.519
355,93.784
356,94.049
357,94.314
358,94.58
359,94.845
360,95.11
361,95.375
362,95.641
363,95.906
364,96.171
365,96.437
366,96.702
367,96.967
368,97.232
369,97.498
370,97.763
371,98.028
372,98.294
373,98.559
374,98.824
375,99.089
376,99.355
377,99.62
378,99.885
379,100.151
380,100.417
381,100.683
382,100.949
383,101.215
384,101.481
385,101.747
386,102.013
387,102.278
388,102.544
389,102.81
390,103.076
391,103.342
392,103.608
393,103.874
394,104.14
395,104.406
396,104.672
397,104.938
398,105.204
399,105.47
400,105.736
401,106.002
402,106.268
403,106.534
404,106.8
405,107.066
406,107.332
407,107.598
408,107.864
409,108.129
410,108.395
411,108.661
412,108.927
413,109.193
414,109.459
415,109.725
416,109.991
417,110.257
418,110.523
419,110.789
420,111.055
421,111.321
422,111.587
423,111.853
424,112.119
425,112.385
426,112.651
427,112.917
428,113.183
429,113.449
430,113.715
431,113.981
432,114.246
433,114.512
434,114.778
435,115.044
436,115.31
437,115.576
438,115.842
439,116.108
440,116.374
441,116.64
442,116.906
443,117.172
444,117.438
445,117.704
446,117.97
447,118.236
448,118.502
449,118.768
450,119.034
451,119.3
452,119.566
453,119.832
454,120.097
455,120.363
456,120.629
457,120.895
458,121.161
459,121.427
460,121.693
461,121.959
462,122.225
463,122.491
464,122.757
465,123.023
466,123.289
467,123.555
468,123.821
469,124.087
470,124.353
471,124.619
472,124.885
473,125.151
474,125.417
475,125.683
476,125.949
477,126.214
478,126.48
479,126.746
480,127.012
481,127.278
482,127.544
483,127.81
484,128.076
485,128.342
486,128.608
487,128.874
488,129.14
489,129.406
490,129.672
491,129.938
492,130.204
493,130.47
494,130.736
495,131.002
496,131.268
497,131.534
498,131.8
499,132.065
500,132.331
501,132.597
502,132.863
503,133.129
504,133.395
505,133.661
506,133.927
507,134.193
508,134.459
509,134.725
510,134.991
511,135.257
512,135.523
513,135.789
514,136.055
515,136.321
516,136.587
517,136.853
518,137.119
519,137.385
520,137.651
521,137.917
522,138.182
523,138.448
524,138.714
525,138.98
526,139.246
527,139.512
528,139.778
529,140.044
530,140.31
531,140.576
532,140.842
533,141.108
534,141.374
535,141.64
536,141.906
537,142.172
538,142.438
539,142.704
540,142.97
541,143.236
542,143.502
543,143.768
544,144.034
545,144.299
546,144.565
547,144.831
548,145.097
549,145.363
550,145.629
551,145.895
552,146.161
553,146.427
554,146.693
555,146.959
556,147.225
557,147.491
558,147.757
559,148.023
560,148.289
561,148.555
562,148.821
563,149.087
564,149.353
565,149.619
566,149.885
567,150.15
568,150.416
569,150.682
570,150.948
571,151.214
572,151.48
573,151.746
574,152.012
575,152.278
576,152.544
577,152.81
578,153.076
579,153.342
580,153.608
581,153.874
582,154.14
583,154.406
584,154.672
585,154.938
586,155.204
587,155.47
588,155.736
589,156.002
590,156.267
591,156.533
592,156.799
593,157.065
594,157.331
595,157.597
596,157.863
597,158.129
598,158.395
599,158.661
600,158.927
601,159.193
602,159.459
603,159.725
604,159.991
605,160.257
606,160.523
607,160.789
608,161.055
609,161.321
610,161.587
611,161.853
612,162.118
613,162.384
614,162.65
615,162.916
616,163.182
617,163.448
618,163.714
619,163.98
620,164.246
621,164.512
622,164.778
623,165.044
624,165.31
625,165.576
626,165.842
627,166.108
628,166.374
629,166.64
630,166.906
631,167.172
632,167.438
633,167.704
634,167.97
635,168.235
636,168.501
637,168.767
638,169.033
639,169.299
640,169.565
641,169.831
642,170.097
643,170.363
644,170.629
645,170.895
646,171.161
647,171.427
648,171.693
649,171.959
650,172.225
651,172.491
652,172.757
653,173.023
654,173.289
655,173.555
656,173.821
657,174.086
658,174.352
659,174.618
660,174.884
661,175.15
662,175.416
663,175.682
664,175.948
665,176.214
666,176.48
667,176.746
668,177.012
669,177.278
670,177.544
671,177.81
672,178.076
673,178.342
674,178.608
675,178.874
676,179.14
677,179.406
678,179.672
679,179.938
680,180.203
681,180.469
682,180.735
683,181.001
684,181.267
685,181.533
686,181.799
687,182.065
688,182.331
689,182.597
690,182.863
691,183.129
692,183.395
693,183.661
694,183.927
695,184.193
696,184.459
697,184.725
698,184.991
699,185.257
700,185.523
701,185.789
702,186.054
703,186.32
704,186.586
705,186.852
706,187.118
707,187.384
708,187.65
709,187.916
710,188.182
711,188.448
712,188.714
713,188.98
714,189.246
715,189.512
716,189.778
717,190.044
718,190.31
719,190.576
720,190.842
721,191.108
722,191.374
723,191.64
724,191.906
725,192.171
726,192.437
727,192.703
728,192.969
729,193.235
730,193.501
731,193.767
732,194.033
733,194.299
734,194.565
735,194.831
736,195.097
737,195.363
738,195.629
739,195.895
740,196.161
741,196.427
742,196.693
743,196.959
744,197.225
745,197.491
746,197.757
747,198.022
748,198.288
749,198.554
750,198.82
751,199.086
752,199.352
753,199.618
754,199.884
755,200.149
756,200.414
757,200.679
758,200.943
759,201.208
760,201.473
761,201.737
762,202.002
763,202.267
764,202.531
765,202.796
766,203.06
767,203.325
768,203.59
769,203.854
770,204.119
771,204.384
772,204.648
773,204.913
774,205.178
775,205.442
776,205.707
777,205.972
778,206.236
779,206.501
780,206.765
781,207.03
782,207.295
783,207.559
784,207.824
785,208.089
786,208.353
787,208.618
788,208.883
789,209.147
790,209.412
791,209.677
792,209.941
793,210.206
794,210.47
795,210.735
796,211.0
797,211.264
798,211.529
799,211.794
800,212.058
801,212.323
802,212.588
803,212.852
804,213.117
805,213.382
806,213.646
807,213.911
808,214.175
809,214.44
810,214.705
811,214.969
812,215.234
813,215.499
814,215.763
815,216.028
816,216.293
817,216.557
818,216.822
819,217.087
820,217.351
821,217.616
822,217.88
823,218.145
824,218.41
825,218.674
826,218.939
827,219.204
828,219.468
829,219.733
830,219.998
831,220.262
832,220.527
833,220.792
834,221.056
835,221.321
836,221.585
837,221.85
838,222.115
839,222.379
840,222.644
841,222.909
842,223.173
843,223.438
844,223.703
845,223.967
846,224.232
847,224.497
848,224.761
849,225.026
850,225.29
851,225.555
852,225.82
853,226.084
854,226.349
855,226.614
856,226.878
857,227.143
858,227.408
859,227.672
860,227.937
861,228.202
862,228.466
863,228.731
864,228.995
865,229.26
866,229.525
867,229.789
868,230.054
869,230.319
870,230.583
871,230.848
872,231.113
873,231.377
874,231.642
875,231.907
876,232.171
877,232.436
878,232.7
879,232.965
880,233.23
881,233.494
882,233.759
883,234.024
884,234.288
885,234.553
886,234.818
887,235.082
888,235.347
889,235.612
890,235.876
891,236.141
892,236.405
893,236.67
894,236.935
895,237.199
896,237.464
897,237.729
898,237.993
899,238.258
900,238.523
901,238.787
902,239.052
903,239.317
904,239.581
905,239.846
906,240.11
907,240.375
908,240.64
909,240.904
910,241.169
911,241.434
912,241.698
913,241.963
914,242.228
915,242.492
916,242.757
917,243.021
918,243.286
919,243.551
920,243.815
921,244.08
922,244.345
923,244.609
924,244.874
925,245.139
926,245.403
927,245.668
928,245.933
929,246.197
930,246.462
931,246.726
932,246.991
933,247.256
934,247.52
935,247.785
936,248.05
937,248.314
938,248.579
939,248.844
940,249.108
941,249.373
942,249.638
943,249.902
944,250.167
945,250.431
946,250.696
947,250.961
948,251.225
949,251.49
950,251.755
951,252.019
952,252.284
953,252.549
954,252.813
955,253.078
956,253.343
957,253.607
958,253.872
959,254.136
960,254.401
961,254.666
962,254.93
963,255.195
964,255.46
965,255.724
966,255.989
967,256.254
968,256.518
969,256.783
970,257.048
971,257.312
972,257.577
973,257.841
974,258.106
975,258.371
976,258.635
977,258.9
978,259.165
979,259.429
980,259.694
981,259.959
982,260.223
983,260.488
984,260.753
985,261.017
986,261.282
987,261.546
988,261.811
989,262.076
990,262.34
991,262.605
992,262.87
993,263.134
994,263.399
995,263.664
996,263.928
997,264.193
998,264.458
999,264.722
1000,264.987
1001,265.251
1002,265.516
1003,265.781
1004,266.045
1005,266.31
1006,266.575
1007,266.839
1008,267.104
1009,267.369
1010,267.633
1011,267.898
1012,268.163
1013,268.427
1014,268.692
1015,268.956
1016,269.221
1017,269.486
1018,269.75
1019,270.015
1020,270.28
1021,270.544
1022,270.809
1023,271.074
1024,271.338
1025,271.603
1026,271.868
1027,272.132
1028,272.397
1029,272.661
1030,272.926
1031,273.191
1032,273.455
1033,273.72
1034,273.985
1035,274.249
1036,274.514
1037,274.779
1038,275.043
1039,275.308
1040,275.573
1041,275.837
1042,276.102
1043,276.366
1044,276.631
1045,276.896
1046,277.16
1047,277.425
1048,277.69
1049,277.954
1050,278.219
1051,278.484
1052,278.748
1053,279.013
1054,279.278
1055,279.542
1056,279.807
1057,280.071
1058,280.336
1059,280.601
1060,280.865
1061,281.13
1062,281.395
1063,281.659
1064,281.924
1065,282.189
1066,282.453
1067,282.718
1068,282.983
1069,283.247
1070,283.512
1071,283.776
1072,284.041
1073,284.306
1074,284.57
1075,284.835
1076,285.1
1077,285.364
1078,285.629
1079,285.894
1080,286.158
1081,286.423
1082,286.688
1083,286.952
1084,287.217
1085,287.481
1086,287.746
1087,288.011
1088,288.275
1089,288.54
1090,288.805
1091,289.069
1092,289.334
1093,289.599
1094,289.863
1095,290.128
1096,290.393
1097,290.657
1098,290.922
1099,291.186
1100,291.451
1101,291.716
1102,291.98
1103,292.245
1104,292.51
1105,292.774
1106,293.039
1107,293.304
1108,293.568
1109,293.833
1110,294.098
1111,294.362
1112,294.627
1113,294.891
1114,295.156
1115,295.421
1116,295.685
1117,295.95
1118,296.215
1119,296.479
1120,296.744
1121,297.009
1122,297.273
1123,297.538
1124,297.803
1125,298.067
1126,298.332
1127,298.596
1128,298.861
1129,299.126
1130,299.39
1131,299.655
1132,299.92
1133,300.185
1134,300.45
1135,300.716
1136,300.981
1137,301.247
1138,301.512
1139,301.777
1140,302.043
1141,302.308
1142,302.574
1143,302.839
1144,303.105
1145,303.37
1146,303.636
1147,303.901
1148,304.166
1149,304.432
1150,304.697
1151,304.963
1152,305.228
1153,305.494
1154,305.759
1155,306.024
1156,306.29
1157,306.555
1158,306.821
1159,307.086
1160,307.352
1161,307.617
1162,307.883
1163,308.148
1164,308.413
1165,308.679
1166,308.944
1167,309.21
1168,309.475
1169,309.741
1170,310.006
1171,310.271
1172,310.537
1173,310.802
1174,311.068
1175,311.333
1176,311.599
1177,311.864
1178,312.129
1179,312.395
1180,312.66
1181,312.926
1182,313.191
1183,313.457
1184,313.722
1185,313.988
1186,314.253
1187,314.518
1188,314.784
1189,315.049
1190,315.315
1191,315.58
1192,315.846
1193,316.111
1194,316.376
1195,316.642
1196,316.907
1197,317.173
1198,317.438
1199,317.704
1200,317.969
1201,318.234
1202,318.5
1203,318.765
1204,319.031
1205,319.296
1206,319.562
1207,319.827
1208,320.093
1209,320.358
1210,320.623
1211,320.889
1212,321.154
1213,321.42
1214,321.685
1215,321.951
1216,322.216
1217,322.481
1218,322.747
1219,323.012
1220,323.278
1221,323.543
1222,323.809
1223,324.074
1224,324.34
1225,324.605
1226,324.87
1227,325.136
1228,325.401
1229,325.667
1230,325.932
1231,326.198
1232,326.463
1233,326.728
1234,326.994
1235,327.259
1236,327.525
1237,327.79
1238,328.056
1239,328.321
1240,328.586
1241,328.852
1242,329.117
1243,329.383
1244,329.648
1245,329.914
1246,330.179
1247,330.445
1248,330.71
1249,330.975
1250,331.241
1251,331.506
1252,331.772
1253,332.037
1254,332.303
1255,332.568
1256,332.833
1257,333.099
1258,333.364
1259,333.63
1260,333.895
1261,334.161
1262,334.426
1263,334.692
1264,334.957
1265,335.222
1266,335.488
1267,335.753
1268,336.019
1269,336.284
1270,336.55
1271,336.815
1272,337.08
1273,337.346
1274,337.611
1275,337.877
1276,338.142
1277,338.408
1278,338.673
1279,338.938
1280,339.204
1281,339.469
1282,339.735
1283,340.0
1284,340.266
1285,340.531
1286,340.797
1287,341.062
1288,341.327
1289,341.593
1290,341.858
1291,342.124
1292,342.389
1293,342.655
1294,342.92
1295,343.185
1296,343.451
1297,343.716
1298,343.982
1299,344.247
1300,344.513
1301,344.778
1302,345.044
1303,345.309
1304,345.574
1305,345.84
1306,346.105
1307,346.371
1308,346.636
1309,346.902
1310,347.167
1311,347.432
1312,347.698
1313,347.963
1314,348.229
1315,348.494
1316,348.76
1317,349.025
1318,349.29
1319,349.556
1320,349.821
1321,350.087
1322,350.352
1323,350.618
1324,350.883
1325,351.149
1326,351.414
1327,351.679
1328,351.945
1329,352.21
1330,352.476
1331,352.741
1332,353.007
1333,353.272
1334,353.537
1335,353.803
1336,354.068
1337,354.334
1338,354.599
1339,354.865
1340,355.13
1341,355.396
1342,355.661
1343,355.926
1344,356.192
1345,356.457
1346,356.723
1347,356.988
1348,357.254
1349,357.519
1350,357.784
1351,358.05
1352,358.315
1353,358.581
1354,358.846
1355,359.112
1356,359.377
1357,359.642
1358,359.908
1359,360.173
1360,360.439
1361,360.704
1362,360.97
1363,361.235
1364,361.501
1365,361.766
1366,362.031
1367,362.297
1368,362.562
1369,362.828
1370,363.093
1371,363.359
1372,363.624
1373,363.889
1374,364.155
1375,364.42
1376,364.686
1377,364.951
1378,365.217
1379,365.482
1380,365.747
1381,366.013
1382,366.278
1383,366.544
1384,366.809
1385,367.075
1386,367.34
1387,367.606
1388,367.871
1389,368.136
1390,368.402
1391,368.667
1392,368.933
1393,369.198
1394,369.464
1395,369.729
1396,369.994
1397,370.26
1398,370.525
1399,370.791
1400,371.056
1401,371.322
1402,371.587
1403,371.853
1404,372.118
1405,372.383
1406,372.649
1407,372.914
1408,373.18
1409,373.445
1410,373.711
1411,373.976
1412,374.241
1413,374.507
1414,374.772
1415,375.038
1416,375.303
1417,375.569
1418,375.834
1419,376.099
1420,376.365
1421,376.63
1422,376.896
1423,377.161
1424,377.427
1425,377.692
1426,377.958
1427,378.223
1428,378.488
1429,378.754
1430,379.019
1431,379.285
1432,379.55
1433,379.816
1434,380.081
1435,380.346
1436,380.612
1437,380.877
1438,381.143
1439,381.408
1440,381.674
1441,381.939
1442,382.205
1443,382.47
1444,382.735
1445,383.001
1446,383.266
1447,383.532
1448,383.797
1449,384.063
1450,384.328
1451,384.593
1452,384.859
1453,385.124
1454,385.39
1455,385.655
1456,385.921
1457,386.186
1458,386.451
1459,386.717
1460,386.982
1461,387.248
1462,387.513
1463,387.779
1464,388.044
1465,388.31
1466,388.575
1467,388.84
1468,389.106
1469,389.371
1470,389.637
1471,389.902
1472,390.168
1473,390.433
1474,390.698
1475,390.964
1476,391.229
1477,391.495
1478,391.76
1479,392.026
1480,392.291
1481,392.557
1482,392.822
1483,393.087
1484,393.353
1485,393.618
1486,393.884
1487,394.149
1488,394.415
1489,394.68
1490,394.945
1491,395.211
1492,395.476
1493,395.742
1494,396.007
1495,396.273
1496,396.538
1497,396.803
1498,397.069
1499,397.334
1500,397.6
1501,397.865
1502,398.131
1503,398.396
1504,398.662
1505,398.927
1506,399.192
1507,399.458
1508,399.723
1509,399.989
1510,400.255
1511,400.52
1512,400.786
1513,401.052
1514,401.318
1515,401.584
1516,401.85
1517,402.115
1518,402.381
1519,402.647
1520,402.913
1521,403.179
1522,403.444
1523,403.71
1524,403.976
1525,404.242
1526,404.508
1527,404.774
1528,405.039
1529,405.305
1530,405.571
1531,405.837
1532,406.103
1533,406.369
1534,406.634
1535,406.9
1536,407.166
1537,407.432
1538,407.698
1539,407.964
1540,408.229
1541,408.495
1542,408.761
1543,409.027
1544,409.293
1545,409.559
1546,409.824
1547,410.09
1548,410.356
1549,410.622
1550,410.888
1551,411.154
1552,411.419
1553,411.685
1554,411.951
1555,412.217
1556,412.483
1557,412.749
1558,413.014
1559,413.28
1560,413.546
1561,413.812
1562,414.078
1563,414.344
1564,414.609
1565,414.875
1566,415.141
1567,415.407
1568,415.673
1569,415.939
1570,416.204
1571,416.47
1572,416.736
1573,417.002
1574,417.268
1575,417.534
1576,417.799
1577,418.065
1578,418.331
1579,418.597
1580,418.863
1581,419.129
1582,419.394
1583,419.66
1584,419.926
1585,420.192
1586,420.458
1587,420.724
1588,420.989
1589,421.255
1590,421.521
1591,421.787
1592,422.053
1593,422.319
1594,422.584
1595,422.85
1596,423.116
1597,423.382
1598,423.648
1599,423.914
1600,424.179
1601,424.445
1602,424.711
1603,424.977
1604,425.243
1605,425.508
1606,425.774
1607,426.04
1608,426.306
1609,426.572
1610,426.838
1611,427.103
1612,427.369
1613,427.635
1614,427.901
1615,428.167
1616,428.433
1617,428.698
1618,428.964
1619,429.23
1620,429.496
1621,429.762
1622,430.028
1623,430.293
1624,430.559
1625,430.825
1626,431.091
1627,431.357
1628,431.623
1629,431.888
1630,432.154
1631,432.42
1632,432.686
1633,432.952
1634,433.218
1635,433.483
1636,433.749
1637,434.015
1638,434.281
1639,434.547
1640,434.813
1641,435.078
1642,435.344
1643,435.61
1644,435.876
1645,436.142
1646,436.408
1647,436.673
1648,436.939
1649,437.205
1650,437.471
1651,437.737
1652,438.003
1653,438.268
1654,438.534
1655,438.8
1656,439.066
1657,439.332
1658,439.598
1659,439.863
1660,440.129
1661,440.395
1662,440.661
1663,440.927
1664,441.193
1665,441.458
1666,441.724
1667,441.99
1668,442.256
1669,442.522
1670,442.788
1671,443.053
1672,443.319
1673,443.585
1674,443.851
1675,444.117
1676,444.383
1677,444.648
1678,444.914
1679,445.18
1680,445.446
1681,445.712
1682,445.977
1683,446.243
1684,446.509
1685,446.775
1686,447.041
1687,447.307
1688,447.572
1689,447.838
1690,448.104
1691,448.37
1692,448.636
1693,448.902
1694,449.167
1695,449.433
1696,449.699
1697,449.965
1698,450.231
1699,450.497
1700,450.762
1701,451.028
1702,451.294
1703,451.56
1704,451.826
1705,452.092
1706,452.357
1707,452.623
1708,452.889
1709,453.155
1710,453.421
1711,453.687
1712,453.952
1713,454.218
1714,454.484
1715,454.75
1716,455.016
1717,455.282
1718,455.547
1719,455.813
1720,456.079
1721,456.345
1722,456.611
1723,456.877
1724,457.142
1725,457.408
1726,457.674
1727,457.94
1728,458.206
1729,458.472
1730,458.737
1731,459.003
1732,459.269
1733,459.535
1734,459.801
1735,460.067
1736,460.332
1737,460.598
1738,460.864
1739,461.13
1740,461.396
1741,461.662
1742,461.927
1743,462.193
1744,462.459
1745,462.725
1746,462.991
1747,463.257
1748,463.522
1749,463.788
1750,464.054
1751,464.32
1752,464.586
1753,464.852
1754,465.117
1755,465.383
1756,465.649
1757,465.915
1758,466.181
1759,466.446
1760,466.712
1761,466.978
1762,467.244
1763,467.51
1764,467.776
1765,468.041
1766,468.307
1767,468.573
1768,468.839
1769,469.105
1770,469.371
1771,469.636
1772,469.902
1773,470.168
1774,470.434
1775,470.7
1776,470.966
1777,471.231
1778,471.497
1779,471.763
1780,472.029
1781,472.295
1782,472.561
1783,472.826
1784,473.092
1785,473.358
1786,473.624
1787,473.89
1788,474.156
1789,474.421
1790,474.687
1791,474.953
1792,475.219
1793,475.485
1794,475.751
1795,476.016
1796,476.282
1797,476.548
1798,476.814
1799,477.08
1800,477.346
1801,477.611
1802,477.877
1803,478.143
1804,478.409
1805,478.675
1806,478.941
1807,479.206
1808,479.472
1809,479.738
1810,480.004
1811,480.27
1812,480.536
1813,480.801
1814,481.067
1815,481.333
1816,481.599
1817,481.865
1818,482.131
1819,482.396
1820,482.662
1821,482.928
1822,483.194
1823,483.46
1824,483.726
1825,483.991
1826,484.257
1827,484.523
1828,484.789
1829,485.055
1830,485.321
1831,485.586
1832,485.852
1833,486.118
1834,486.384
1835,486.65
1836,486.916
1837,487.181
1838,487.447
1839,487.713
1840,487.979
1841,488.245
1842,488.51
1843,488.776
1844,489.042
1845,489.308
1846,489.574
1847,489.84
1848,490.105
1849,490.371
1850,490.637
1851,490.903
1852,491.169
1853,491.435
1854,491.7
1855,491.966
1856,492.232
1857,492.498
1858,492.764
1859,493.03
1860,493.295
1861,493.561
1862,493.827
1863,494.093
1864,494.359
1865,494.625
1866,494.89
1867,495.156
1868,495.422
1869,495.688
1870,495.954
1871,496.22
1872,496.485
1873,496.751
1874,497.017
1875,497.283
1876,497.549
1877,497.815
1878,498.08
1879,498.346
1880,498.612
1881,498.878
1882,499.144
1883,499.41
1884,499.675
1885,499.941
1886,500.208
1887,500.475
1888,500.742
1889,501.01
1890,501.277
1891,501.544
1892,501.811
1893,502.078
1894,502.345
1895,502.613
1896,502.88
1897,503.147
1898,503.414
1899,503.681
1900,503.949
1901,504.216
1902,504.483
1903,504.75
1904,505.017
1905,505.284
1906,505.552
1907,505.819
1908,506.086
1909,506.353
1910,506.62
1911,506.887
1912,507.155
1913,507.422
1914,507.689
1915,507.956
1916,508.223
1917,508.49
1918,508.758
1919,509.025
1920,509.292
1921,509.559
1922,509.826
1923,510.094
1924,510.361
1925,510.628
1926,510.895
1927,511.162
1928,511.429
1929,511.697
1930,511.964
1931,512.231
1932,512.498
1933,512.765
1934,513.032
1935,513.3
1936,513.567
1937,513.834
1938,514.101
1939,514.368
1940,514.635
1941,514.903
1942,515.17
1943,515.437
1944,515.704
1945,515.971
1946,516.239
1947,516.506
1948,516.773
1949,517.04
1950,517.307
1951,517.574
1952,517.842
1953,518.109
1954,518.376
1955,518.643
1956,518.91
1957,519.177
1958,519.445
1959,519.712
1960,519.979
1961,520.246
1962,520.513
1963,520.78
1964,521.048
1965,521.315
1966,521.582
1967,521.849
1968,522.116
1969,522.384
1970,522.651
1971,522.918
1972,523.185
1973,523.452
1974,523.719
1975,523.987
1976,524.254
1977,524.521
1978,524.788
1979,525.055
1980,525.322
1981,525.59
1982,525.857
1983,526.124
1984,526.391
1985,526.658
1986,526.925
1987,527.193
1988,527.46
1989,527.727
1990,527.994
1991,528.261
1992,528.529
1993,528.796
1994,529.063
1995,529.33
1996,529.597
1997,529.864
1998,530.132
1999,530.399
2000,530.666
2001,530.933
2002,531.2
2003,531.467
2004,531.735
2005,532.002
2006,532.269
2007,532.536
2008,532.803
2009,533.07
2010,533.338
2011,533.605
2012,533.872
2013,534.139
2014,534.406
2015,534.674
2016,534.941
2017,535.208
2018,535.475
2019,535.742
2020,536.009
2021,536.277
2022,536.544
2023,536.811
2024,537.078
2025,537.345
2026,537.612
2027,537.88
2028,538.147
2029,538.414
2030,538.681
2031,538.948
2032,539.215
2033,539.483
2034,539.75
2035,540.017
2036,540.284
2037,540.551
2038,540.819
2039,541.086
2040,541.353
2041,541.62
2042,541.887
2043,542.154
2044,542.422
2045,542.689
2046,542.956
2047,543.223
2048,543.49
2049,543.757
2050,544.025
2051,544.292
2052,544.559
2053,544.826
2054,545.093
2055,545.36
2056,545.628
2057,545.895
2058,546.162
2059,546.429
2060,546.696
2061,546.964
2062,547.231
2063,547.498
2064,547.765
2065,548.032
2066,548.299
2067,548.567
2068,548.834
2069,549.101
2070,549.368
2071,549.635
2072,549.902
2073,550.17
2074,550.437
2075,550.704
2076,550.971
2077,551.238
2078,551.505
2079,551.773
2080,552.04
2081,552.307
2082,552.574
2083,552.841
2084,553.109
2085,553.376
2086,553.643
2087,553.91
2088,554.177
2089,554.444
2090,554.712
2091,554.979
2092,555.246
2093,555.513
2094,555.78
2095,556.047
2096,556.315
2097,556.582
2098,556.849
2099,557.116
2100,557.383
2101,557.65
2102,557.918
2103,558.185
2104,558.452
2105,558.719
2106,558.986
2107,559.254
2108,559.521
2109,559.788
2110,560.055
2111,560.322
2112,560.589
2113,560.857
2114,561.124
2115,561.391
2116,561.658
2117,561.925
2118,562.192
2119,562.46
2120,562.727
2121,562.994
2122,563.261
2123,563.528
2124,563.795
2125,564.063
2126,564.33
2127,564.597
2128,564.864
2129,565.131
2130,565.399
2131,565.666
2132,565.933
2133,566.2
2134,566.467
2135,566.734
2136,567.002
2137,567.269
2138,567.536
2139,567.803
2140,568.07
2141,568.337
2142,568.605
2143,568.872
2144,569.139
2145,569.406
2146,569.673
2147,569.94
2148,570.208
2149,570.475
2150,570.742
2151,571.009
2152,571.276
2153,571.544
2154,571.811
2155,572.078
2156,572.345
2157,572.612
2158,572.879
2159,573.147
2160,573.414
2161,573.681
2162,573.948
2163,574.215
2164,574.482
2165,574.75
2166,575.017
2167,575.284
2168,575.551
2169,575.818
2170,576.085
2171,576.353
2172,576.62
2173,576.887
2174,577.154
2175,577.421
2176,577.689
2177,577.956
2178,578.223
2179,578.49
2180,578.757
2181,579.024
2182,579.292
2183,579.559
2184,579.826
2185,580.093
2186,580.36
2187,580.627
2188,580.895
2189,581.162
2190,581.429
2191,581.696
2192,581.963
2193,582.23
2194,582.498
2195,582.765
2196,583.032
2197,583.299
2198,583.566
2199,583.834
2200,584.101
2201,584.368
2202,584.635
2203,584.902
2204,585.169
2205,585.437
2206,585.704
2207,585.971
2208,586.238
2209,586.505
2210,586.772
2211,587.04
2212,587.307
2213,587.574
2214,587.841
2215,588.108
2216,588.375
2217,588.643
2218,588.91
2219,589.177
2220,589.444
2221,589.711
2222,589.979
2223,590.246
2224,590.513
2225,590.78
2226,591.047
2227,591.314
2228,591.582
2229,591.849
2230,592.116
2231,592.383
2232,592.65
2233,592.917
2234,593.185
2235,593.452
2236,593.719
2237,593.986
2238,594.253
2239,594.52
2240,594.788
2241,595.055
2242,595.322
2243,595.589
2244,595.856
2245,596.124
2246,596.391
2247,596.658
2248,596.925
2249,597.192
2250,597.459
2251,597.727
2252,597.994
2253,598.261
2254,598.528
2255,598.795
2256,599.062
2257,599.33
2258,599.597
2259,599.864
2260,600.131
2261,600.397
2262,600.663
2263,600.93
2264,601.196
2265,601.463
2266,601.729
2267,601.995
2268,602.262
2269,602.528
2270,602.794
2271,603.061
2272,603.327
2273,603.593
2274,603.86
2275,604.126
2276,604.392
2277,604.659
2278,604.925
2279,605.191
2280,605.458
2281,605.724
2282,605.991
2283,606.257
2284,606.523
2285,606.79
2286,607.056
2287,607.322
2288,607.589
2289,607.855
2290,608.121
2291,608.388
2292,608.654
2293,608.92
2294,609.187
2295,609.453
2296,609.72
2297,609.986
2298,610.252
2299,610.519
2300,610.785
2301,611.051
2302,611.318
2303,611.584
2304,611.85
2305,612.117
2306,612.383
2307,612.649
2308,612.916
2309,613.182
2310,613.449
2311,613.715
2312,613.981
2313,614.248
2314,614.514
2315,614.78
2316,615.047
2317,615.313
2318,615.579
2319,615.846
2320,616.112
2321,616.378
2322,616.645
2323,616.911
2324,617.178
2325,617.444
2326,617.71
2327,617.977
2328,618.243
2329,618.509
2330,618.776
2331,619.042
2332,619.308
2333,619.575
2334,619.841
2335,620.107
2336,620.374
2337,620.64
2338,620.907
2339,621.173
2340,621.439
2341,621.706
2342,621.972
2343,622.238
2344,622.505
2345,622.771
2346,623.037
2347,623.304
2348,623.57
2349,623.836
2350,624.103
2351,624.369
2352,624.635
2353,624.902
2354,625.168
2355,625.435
2356,625.701
2357,625.967
2358,626.234
2359,626.5
2360,626.766
2361,627.033
2362,627.299
2363,627.565
2364,627.832
2365,628.098
2366,628.364
2367,628.631
2368,628.897
2369,629.164
2370,629.43
2371,629.696
2372,629.963
2373,630.229
2374,630.495
2375,630.762
2376,631.028
2377,631.294
2378,631.561
2379,631.827
2380,632.093
2381,632.36
2382,632.626
2383,632.893
2384,633.159
2385,633.425
2386,633.692
2387,633.958
2388,634.224
2389,634.491
2390,634.757
2391,635.023
2392,635.29
2393,635.556
2394,635.822
2395,636.089
2396,636.355
2397,636.622
2398,636.888
2399,637.154
2400,637.421
2401,637.687
2402,637.953
2403,638.22
2404,638.486
2405,638.752
2406,639.019
2407,639.285
2408,639.551
2409,639.818
2410,640.084
2411,640.351
2412,640.617
2413,640.883
2414,641.15
2415,641.416
2416,641.682
2417,641.949
2418,642.215
2419,642.481
2420,642.748
2421,643.014
2422,643.28
2423,643.547
2424,643.813
2425,644.079
2426,644.346
2427,644.612
2428,644.879
2429,645.145
2430,645.411
2431,645.678
2432,645.944
2433,646.21
2434,646.477
2435,646.743
2436,647.009
2437,647.276
2438,647.542
2439,647.808
2440,648.075
2441,648.341
2442,648.608
2443,648.874
2444,649.14
2445,649.407
2446,649.673
2447,649.939
2448,650.206
2449,650.472
2450,650.738
2451,651.005
2452,651.271
2453,651.537
2454,651.804
2455,652.07
2456,652.337
2457,652.603
2458,652.869
2459,653.136
2460,653.402
2461,653.668
2462,653.935
2463,654.201
2464,654.467
2465,654.734
2466,655.0
2467,655.266
2468,655.533
2469,655.799
2470,656.066
2471,656.332
2472,656.598
2473,656.865
2474,657.131
2475,657.397
2476,657.664
2477,657.93
2478,658.196
2479,658.463
2480,658.729
2481,658.995
2482,659.262
2483,659.528
2484,659.795
2485,660.061
2486,660.327
2487,660.594
2488,660.86
2489,661.126
2490,661.393
2491,661.659
2492,661.925
2493,662.192
2494,662.458
2495,662.724
2496,662.991
2497,663.257
2498,663.524
2499,663.79
2500,664.056
2501,664.323
2502,664.589
2503,664.855
2504,665.122
2505,665.388
2506,665.654
2507,665.921
2508,666.187
2509,666.453
2510,666.72
2511,666.986
2512,667.252
2513,667.519
2514,667.785
2515,668.052
2516,668.318
2517,668.584
2518,668.851
2519,669.117
2520,669.383
2521,669.65
2522,669.916
2523,670.182
2524,670.449
2525,670.715
2526,670.981
2527,671.248
2528,671.514
2529,671.781
2530,672.047
2531,672.313
2532,672.58
2533,672.846
2534,673.112
2535,673.379
2536,673.645
2537,673.911
2538,674.178
2539,674.444
2540,674.71
2541,674.977
2542,675.243
2543,675.51
2544,675.776
2545,676.042
2546,676.309
2547,676.575
2548,676.841
2549,677.108
2550,677.374
2551,677.64
2552,677.907
2553,678.173
2554,678.439
2555,678.706
2556,678.972
2557,679.239
2558,679.505
2559,679.771
2560,680.038
2561,680.304
2562,680.57
2563,680.837
2564,681.103
2565,681.369
2566,681.636
2567,681.902
2568,682.168
2569,682.435
2570,682.701
2571,682.968
2572,683.234
2573,683.5
2574,683.767
2575,684.033
2576,684.299
2577,684.566
2578,684.832
2579,685.098
2580,685.365
2581,685.631
2582,685.897
2583,686.164
2584,686.43
2585,686.696
2586,686.963
2587,687.229
2588,687.496
2589,687.762
2590,688.028
2591,688.295
2592,688.561
2593,688.827
2594,689.094
2595,689.36
2596,689.626
2597,689.893
2598,690.159
2599,690.425
2600,690.692
2601,690.958
2602,691.225
2603,691.491
2604,691.757
2605,692.024
2606,692.29
2607,692.556
2608,692.823
2609,693.089
2610,693.355
2611,693.622
2612,693.888
2613,694.154
2614,694.421
2615,694.687
2616,694.954
2617,695.22
2618,695.486
2619,695.753
2620,696.019
2621,696.285
2622,696.552
2623,696.818
2624,697.084
2625,697.351
2626,697.617
2627,697.883
2628,698.15
2629,698.416
2630,698.683
2631,698.949
2632,699.215
2633,699.482
2634,699.748
2635,700.014
2636,700.282
2637,700.549
2638,700.817
2639,701.084
2640,701.351
2641,701.619
2642,701.886
2643,702.154
2644,702.421
2645,702.688
2646,702.956
2647,703.223
2648,703.49
2649,703.758
2650,704.025
2651,704.293
2652,704.56
2653,704.827
2654,705.095
2655,705.362
2656,705.63
2657,705.897
2658,706.164
2659,706.432
2660,706.699
2661,706.967
2662,707.234
2663,707.501
2664,707.769
2665,708.036
2666,708.304
2667,708.571
2668,708.838
2669,709.106
2670,709.373
2671,709.641
2672,709.908
2673,710.175
2674,710.443
2675,710.71
2676,710.978
2677,711.245
2678,711.512
2679,711.78
2680,712.047
2681,712.315
2682,712.582
2683,712.849
2684,713.117
2685,713.384
2686,713.651
2687,713.919
2688,714.186
2689,714.454
2690,714.721
2691,714.988
2692,715.256
2693,715.523
2694,715.791
2695,716.058
2696,716.325
2697,716.593
2698,716.86
2699,717.128
2700,717.395
2701,717.662
2702,717.93
2703,718.197
2704,718.465
2705,718.732
2706,718.999
2707,719.267
2708,719.534
2709,719.802
2710,720.069
2711,720.336
2712,720.604
2713,720.871
2714,721.139
2715,721.406
2716,721.673
2717,721.941
2718,722.208
2719,722.475
2720,722.743
2721,723.01
2722,723.278
2723,723.545
2724,723.812
2725,724.08
2726,724.347
2727,724.615
2728,724.882
2729,725.149
2730,725.417
2731,725.684
2732,725.952
2733,726.219
2734,726.486
2735,726.754
2736,727.021
2737,727.289
2738,727.556
2739,727.823
2740,728.091
2741,728.358
2742,728.626
2743,728.893
2744,729.16
2745,729.428
2746,729.695
2747,729.963
2748,730.23
2749,730.497
2750,730.765
2751,731.032
2752,731.3
2753,731.567
2754,731.834
2755,732.102
2756,732.369
2757,732.636
2758,732.904
2759,733.171
2760,733.439
2761,733.706
2762,733.973
2763,734.241
2764,734.508
2765,734.776
2766,735.043
2767,735.31
2768,735.578
2769,735.845
2770,736.113
2771,736.38
2772,736.647
2773,736.915
2774,737.182
2775,737.45
2776,737.717
2777,737.984
2778,738.252
2779,738.519
2780,738.787
2781,739.054
2782,739.321
2783,739.589
2784,739.856
2785,740.124
2786,740.391
2787,740.658
2788,740.926
2789,741.193
2790,741.461
2791,741.728
2792,741.995
2793,742.263
2794,742.53
2795,742.797
2796,743.065
2797,743.332
2798,743.6
2799,743.867
2800,744.134
2801,744.402
2802,744.669
2803,744.937
2804,745.204
2805,745.471
2806,745.739
2807,746.006
2808,746.274
2809,746.541
2810,746.808
2811,747.076
2812,747.343
2813,747.611
2814,747.878
2815,748.145
2816,748.413
2817,748.68
2818,748.948
2819,749.215
2820,749.482
2821,749.75
2822,750.017
2823,750.285
2824,750.552
2825,750.819
2826,751.087
2827,751.354
2828,751.621
2829,751.889
2830,752.156
2831,752.424
2832,752.691
2833,752.958
2834,753.226
2835,753.493
2836,753.761
2837,754.028
2838,754.295
2839,754.563
2840,754.83
2841,755.098
2842,755.365
2843,755.632
2844,755.9
2845,756.167
2846,756.435
2847,756.702
2848,756.969
2849,757.237
2850,757.504
2851,757.772
2852,758.039
2853,758.306
2854,758.574
2855,758.841
2856,759.109
2857,759.376
2858,759.643
2859,759.911
2860,760.178
2861,760.446
2862,760.713
2863,760.98
2864,761.248
2865,761.515
2866,761.782
2867,762.05
2868,762.317
2869,762.585
2870,762.852
2871,763.119
2872,763.387
2873,763.654
2874,763.922
2875,764.189
2876,764.456
2877,764.724
2878,764.991
2879,765.259
2880,765.526
2881,765.793
2882,766.061
2883,766.328
2884,766.596
2885,766.863
2886,767.13
2887,767.398
2888,767.665
2889,767.933
2890,768.2
2891,768.467
2892,768.735
2893,769.002
2894,769.27
2895,769.537
2896,769.804
2897,770.072
2898,770.339
2899,770.607
2900,770.874
2901,771.141
2902,771.409
2903,771.676
2904,771.943
2905,772.211
2906,772.478
2907,772.746
2908,773.013
2909,773.28
2910,773.548
2911,773.815
2912,774.083
2913,774.35
2914,774.617
2915,774.885
2916,775.152
2917,775.42
2918,775.687
2919,775.954
2920,776.222
2921,776.489
2922,776.757
2923,777.024
2924,777.291
2925,777.559
2926,777.826
2927,778.094
2928,778.361
2929,778.628
2930,778.896
2931,779.163
2932,779.431
2933,779.698
2934,779.965
2935,780.233
2936,780.5
2937,780.767
2938,781.035
2939,781.302
2940,781.57
2941,781.837
2942,782.104
2943,782.372
2944,782.639
2945,782.907
2946,783.174
2947,783.441
2948,783.709
2949,783.976
2950,784.244
2951,784.511
2952,784.778
2953,785.046
2954,785.313
2955,785.581
2956,785.848
2957,786.115
2958,786.383
2959,786.65
2960,786.918
2961,787.185
2962,787.452
2963,787.72
2964,787.987
2965,788.255
2966,788.522
2967,788.789
2968,789.057
2969,789.324
2970,789.592
2971,789.859
2972,790.126
2973,790.394
2974,790.661
2975,790.928
2976,791.196
2977,791.463
2978,791.731
2979,791.998
2980,792.265
2981,792.533
2982,792.8
2983,793.068
2984,793.335
2985,793.602
2986,793.87
2987,794.137
2988,794.405
2989,794.672
2990,794.939
2991,795.207
2992,795.474
2993,795.742
2994,796.009
2995,796.276
2996,796.544
2997,796.811
2998,797.079
2999,797.346
3000,797.613
3001,797.881
3002,798.148
3003,798.416
3004,798.683
3005,798.95
3006,799.218
3007,799.485
3008,799.753
3009,800.02
3010,800.286
3011,800.552
3012,800.819
3013,801.085
3014,801.351
3015,801.617
3016,801.883
3017,802.15
3018,802.416
3019,802.682
3020,802.948
3021,803.215
3022,803.481
3023,803.747
3024,804.013
3025,804.28
3026,804.546
3027,804.812
3028,805.078
3029,805.345
3030,805.611
3031,805.877
3032,806.143
3033,806.41
3034,806.676
3035,806.942
3036,807.208
3037,807.474
3038,807.741
3039,808.007
3040,808.273
3041,808.539
3042,808.806
3043,809.072
3044,809.338
3045,809.604
3046,809.871
3047,810.137
3048,810.403
3049,810.669
3050,810.936
3051,811.202
3052,811.468
3053,811.734
3054,812.001
3055,812.267
3056,812.533
3057,812.799
3058,813.066
3059,813.332
3060,813.598
3061,813.864
3062,814.13
3063,814.397
3064,814.663
3065,814.929
3066,815.195
3067,815.462
3068,815.728
3069,815.994
3070,816.26
3071,816.527
3072,816.793
3073,817.059
3074,817.325
3075,817.592
3076,817.858
3077,818.124
3078,818.39
3079,818.657
3080,818.923
3081,819.189
3082,819.455
3083,819.721
3084,819.988
3085,820.254
3086,820.52
3087,820.786
3088,821.053
3089,821.319
3090,821.585
3091,821.851
3092,822.118
3093,822.384
3094,822.65
3095,822.916
3096,823.183
3097,823.449
3098,823.715
3099,823.981
3100,824.248
3101,824.514
3102,824.78
3103,825.046
3104,825.312
3105,825.579
3106,825.845
3107,826.111
3108,826.377
3109,826.644
3110,826.91
3111,827.176
3112,827.442
3113,827.709
3114,827.975
3115,828.241
3116,828.507
3117,828.774
3118,829.04
3119,829.306
3120,829.572
3121,829.839
3122,830.105
3123,830.371
3124,830.637
3125,830.903
3126,831.17
3127,831.436
3128,831.702
3129,831.968
3130,832.235
3131,832.501
3132,832.767
3133,833.033
3134,833.3
3135,833.566
3136,833.832
3137,834.098
3138,834.365
3139,834.631
3140,834.897
3141,835.163
3142,835.43
3143,835.696
3144,835.962
3145,836.228
3146,836.495
3147,836.761
3148,837.027
3149,837.293
3150,837.559
3151,837.826
3152,838.092
3153,838.358
3154,838.624
3155,838.891
3156,839.157
3157,839.423
3158,839.689
3159,839.956
3160,840.222
3161,840.488
3162,840.754
3163,841.021
3164,841.287
3165,841.553
3166,841.819
3167,842.086
3168,842.352
3169,842.618
3170,842.884
3171,843.15
3172,843.417
3173,843.683
3174,843.949
3175,844.215
3176,844.482
3177,844.748
3178,845.014
3179,845.28
3180,845.547
3181,845.813
3182,846.079
3183,846.345
3184,846.612
3185,846.878
3186,847.144
3187,847.41
3188,847.677
3189,847.943
3190,848.209
3191,848.475
3192,848.741
3193,849.008
3194,849.274
3195,849.54
3196,849.806
3197,850.073
3198,850.339
3199,850.605
3200,850.871
3201,851.138
3202,851.404
3203,851.67
3204,851.936
3205,852.203
3206,852.469
3207,852.735
3208,853.001
3209,853.268
3210,853.534
3211,853.8
3212,854.066
3213,854.333
3214,854.599
3215,854.865
3216,855.131
3217,855.397
3218,855.664
3219,855.93
3220,856.196
3221,856.462
3222,856.729
3223,856.995
3224,857.261
3225,857.527
3226,857.794
3227,858.06
3228,858.326
3229,858.592
3230,858.859
3231,859.125
3232,859.391
3233,859.657
3234,859.924
3235,860.19
3236,860.456
3237,860.722
3238,860.988
3239,861.255
3240,861.521
3241,861.787
3242,862.053
3243,862.32
3244,862.586
3245,862.852
3246,863.118
3247,863.385
3248,863.651
3249,863.917
3250,864.183
3251,864.45
3252,864.716
3253,864.982
3254,865.248
3255,865.515
3256,865.781
3257,866.047
3258,866.313
3259,866.579
3260,866.846
3261,867.112
3262,867.378
3263,867.644
3264,867.911
3265,868.177
3266,868.443
3267,868.709
3268,868.976
3269,869.242
3270,869.508
3271,869.774
3272,870.041
3273,870.307
3274,870.573
3275,870.839
3276,871.106
3277,871.372
3278,871.638
3279,871.904
3280,872.17
3281,872.437
3282,872.703
3283,872.969
3284,873.235
3285,873.502
3286,873.768
3287,874.034
3288,874.3
3289,874.567
3290,874.833
3291,875.099
3292,875.365
3293,875.632
3294,875.898
3295,876.164
3296,876.43
3297,876.697
3298,876.963
3299,877.229
3300,877.495
3301,877.762
3302,878.028
3303,878.294
3304,878.56
3305,878.826
3306,879.093
3307,879.359
3308,879.625
3309,879.891
3310,880.158
3311,880.424
3312,880.69
3313,880.956
3314,881.223
3315,881.489
3316,881.755
3317,882.021
3318,882.288
3319,882.554
3320,882.82
3321,883.086
3322,883.353
3323,883.619
3324,883.885
3325,884.151
3326,884.417
3327,884.684
3328,884.95
3329,885.216
3330,885.482
3331,885.749
3332,886.015
3333,886.281
3334,886.547
3335,886.814
3336,887.08
3337,887.346
3338,887.612
3339,887.879
3340,888.145
3341,888.411
3342,888.677
3343,888.944
3344,889.21
3345,889.476
3346,889.742
3347,890.008
3348,890.275
3349,890.541
3350,890.807
3351,891.073
3352,891.34
3353,891.606
3354,891.872
3355,892.138
3356,892.405
3357,892.671
3358,892.937
3359,893.203
3360,893.47
3361,893.736
3362,894.002
3363,894.268
3364,894.535
3365,894.801
3366,895.067
3367,895.333
3368,895.599
3369,895.866
3370,896.132
3371,896.398
3372,896.664
3373,896.931
3374,897.197
3375,897.463
3376,897.729
3377,897.996
3378,898.262
3379,898.528
3380,898.794
3381,899.061
3382,899.327
3383,899.593
3384,899.859
3385,900.095
3386,900.296
3387,900.497
3388,900.698
3389,900.899
3390,901.101
3391,901.302
3392,901.503
3393,901.704
3394,901.905
3395,902.106
3396,902.308
3397,902.509
3398,902.71
3399,902.911
3400,903.112
3401,903.313
3402,903.514
3403,903.716
3404,903.917
3405,904.118
3406,904.319
3407,904.52
3408,904.721
3409,904.923
3410,905.124
3411,905.325
3412,905.526
3413,905.727
3414,905.928
3415,906.129
3416,906.331
3417,906.532
3418,906.733
3419,906.934
3420,907.135
3421,907.336
3422,907.538
3423,907.739
3424,907.94
3425,908.141
3426,908.342
3427,908.543
3428,908.744
3429,908.946
3430,909.147
3431,909.348
3432,909.549
3433,909.75
3434,909.951
3435,910.153
3436,910.354
3437,910.555
3438,910.756
3439,910.957
3440,911.158
3441,911.359
3442,911.561
3443,911.762
3444,911.963
3445,912.164
3446,912.365
3447,912.566
3448,912.768
3449,912.969
3450,913.17
3451,913.371
3452,913.572
3453,913.773
3454,913.974
3455,914.176
3456,914.377
3457,914.578
3458,914.779
3459,914.98
3460,915.181
3461,915.383
3462,915.584
3463,915.785
3464,915.986
3465,916.187
3466,916.388
3467,916.589
3468,916.791
3469,916.992
3470,917.193
3471,917.394
3472,917.595
3473,917.796
3474,917.998
3475,918.199
3476,918.4
3477,918.601
3478,918.802
3479,919.003
3480,919.204
3481,919.406
3482,919.607
3483,919.808
3484,920.009
3485,920.21
3486,920.411
3487,920.613
3488,920.814
3489,921.015
3490,921.216
3491,921.417
3492,921.618
3493,921.819
3494,922.021
3495,922.222
3496,922.423
3497,922.624
3498,922.825
3499,923.026
3500,923.228
3501,923.429
3502,923.63
3503,923.831
3504,924.032
3505,924.233
3506,924.434
3507,924.636
3508,924.837
3509,925.038
3510,925.239
3511,925.44
3512,925.641
3513,925.843
3514,926.044
3515,926.245
3516,926.446
3517,926.647
3518,926.848
3519,927.049
3520,927.251
3521,927.452
3522,927.653
3523,927.854
3524,928.055
3525,928.256
3526,928.458
3527,928.659
3528,928.86
3529,929.061
3530,929.262
3531,929.463
3532,929.664
3533,929.866
3534,930.067
3535,930.268
3536,930.469
3537,930.67
3538,930.871
3539,931.073
3540,931.274
3541,931.475
3542,931.676
3543,931.877
3544,932.078
3545,932.279
3546,932.481
3547,932.682
3548,932.883
3549,933.084
3550,933.285
3551,933.486
3552,933.688
3553,933.889
3554,934.09
3555,934.291
3556,934.492
3557,934.693
3558,934.894
3559,935.096
3560,935.297
3561,935.498
3562,935.699
3563,935.9
3564,936.101
3565,936.303
3566,936.504
3567,936.705
3568,936.906
3569,937.107
3570,937.308
3571,937.509
3572,937.711
3573,937.912
3574,938.113
3575,938.314
3576,938.515
3577,938.716
3578,938.918
3579,939.119
3580,939.32
3581,939.521
3582,939.722
3583,939.923
3584,940.124
3585,940.326
3586,940.527
3587,940.728
3588,940.929
3589,941.13
3590,941.331
3591,941.533
3592,941.734
3593,941.935
3594,942.136
3595,942.337
3596,942.538
3597,942.739
3598,942.941
3599,943.142
3600,943.343
3601,943.544
3602,943.745
3603,943.946
3604,944.148
3605,944.349
3606,944.55
3607,944.751
3608,944.952
3609,945.153
3610,945.354
3611,945.556
3612,945.757
3613,945.958
3614,946.159
3615,946.36
3616,946.561
3617,946.763
3618,946.964
3619,947.165
3620,947.366
3621,947.567
3622,947.768
3623,947.969
3624,948.171
3625,948.372
3626,948.573
3627,948.774
3628,948.975
3629,949.176
3630,949.378
3631,949.579
3632,949.78
3633,949.981
3634,950.182
3635,950.383
3636,950.584
3637,950.786
3638,950.987
3639,951.188
3640,951.389
3641,951.59
3642,951.791
3643,951.993
3644,952.194
3645,952.395
3646,952.596
3647,952.797
3648,952.998
3649,953.199
3650,953.401
3651,953.602
3652,953.803
3653,954.004
3654,954.205
3655,954.406
3656,954.608
3657,954.809
3658,955.01
3659,955.211
3660,955.412
3661,955.613
3662,955.814
3663,956.016
3664,956.217
3665,956.418
3666,956.619
3667,956.82
3668,957.021
3669,957.223
3670,957.424
3671,957.625
3672,957.826
3673,958.027
3674,958.228
3675,958.429
3676,958.631
3677,958.832
3678,959.033
3679,959.234
3680,959.435
3681,959.636
3682,959.838
3683,960.039
3684,960.24
3685,960.441
3686,960.642
3687,960.843
3688,961.044
3689,961.246
3690,961.447
3691,961.648
3692,961.849
3693,962.05
3694,962.251
3695,962.453
3696,962.654
3697,962.855
3698,963.056
3699,963.257
3700,963.458
3701,963.659
3702,963.861
3703,964.062
3704,964.263
3705,964.464
3706,964.665
3707,964.866
3708,965.068
3709,965.269
3710,965.47
3711,965.671
3712,965.872
3713,966.073
3714,966.274
3715,966.476
3716,966.677
3717,966.878
3718,967.079
3719,967.28
3720,967.481
3721,967.683
3722,967.884
3723,968.085
3724,968.286
3725,968.487
3726,968.688
3727,968.889
3728,969.091
3729,969.292
3730,969.493
3731,969.694
3732,969.895
3733,970.096
3734,970.298
3735,970.499
3736,970.7
3737,970.901
3738,971.102
3739,971.303
3740,971.504
3741,971.706
3742,971.907
3743,972.108
3744,972.309
3745,972.51
3746,972.711
3747,972.913
3748,973.114
3749,973.315
3750,973.516
3751,973.717
3752,973.918
3753,974.119
3754,974.321
3755,974.522
3756,974.723
3757,974.924
3758,975.125
3759,975.326
3760,975.528
3761,975.729
3762,975.93
3763,976.131
3764,976.332
3765,976.533
3766,976.734
3767,976.936
3768,977.137
3769,977.338
3770,977.539
3771,977.74
3772,977.941
3773,978.143
3774,978.344
3775,978.545
3776,978.746
3777,978.947
3778,979.148
3779,979.349
3780,979.551
3781,979.752
3782,979.953
3783,980.154
3784,980.355
3785,980.556
3786,980.758
3787,980.959
3788,981.16
3789,981.361
3790,981.562
3791,981.763
3792,981.964
3793,982.166
3794,982.367
3795,982.568
3796,982.769
3797,982.97
3798,983.171
3799,983.373
3800,983.574
3801,983.775
3802,983.976
3803,984.177
3804,984.378
3805,984.579
3806,984.781
3807,984.982
3808,985.183
3809,985.384
3810,985.585
3811,985.786
3812,985.988
3813,986.189
3814,986.39
3815,986.591
3816,986.792
3817,986.993
3818,987.194
3819,987.396
3820,987.597
3821,987.798
3822,987.999
3823,988.2
3824,988.401
3825,988.603
3826,988.804
3827,989.005
3828,989.206
3829,989.407
3830,989.608
3831,989.809
3832,990.011
3833,990.212
3834,990.413
3835,990.614
3836,990.815
3837,991.016
3838,991.218
3839,991.419
3840,991.62
3841,991.821
3842,992.022
3843,992.223
3844,992.424
3845,992.626
3846,992.827
3847,993.028
3848,993.229
3849,993.43
3850,993.631
3851,993.832
3852,994.034
3853,994.235
3854,994.436
3855,994.637
3856,994.838
3857,995.039
3858,995.241
3859,995.442
3860,995.643
3861,995.844
3862,996.045
3863,996.246
3864,996.447
3865,996.649
3866,996.85
3867,997.051
3868,997.252
3869,997.453
3870,997.654
3871,997.856
3872,998.057
3873,998.258
3874,998.459
3875,998.66
3876,998.861
3877,999.062
3878,999.264
3879,999.465
3880,999.666
3881,999.867
3882,1000.068
3883,1000.269
3884,1000.471
3885,1000.672
3886,1000.873
3887,1001.074
3888,1001.275
3889,1001.476
3890,1001.677
3891,1001.879
3892,1002.08
3893,1002.281
3894,1002.482
3895,1002.683
3896,1002.884
3897,1003.086
3898,1003.287
3899,1003.488
3900,1003.689
3901,1003.89
3902,1004.091
3903,1004.292
3904,1004.494
3905,1004.695
3906,1004.896
3907,1005.097
3908,1005.298
3909,1005.499
3910,1005.701
3911,1005.902
3912,1006.103
3913,1006.304
3914,1006.505
3915,1006.706
3916,1006.907
3917,1007.109
3918,1007.31
3919,1007.511
3920,1007.712
3921,1007.913
3922,1008.114
3923,1008.316
3924,1008.517
3925,1008.718
3926,1008.919
3927,1009.12
3928,1009.321
3929,1009.522
3930,1009.724
3931,1009.925
3932,1010.126
3933,1010.327
3934,1010.528
3935,1010.729
3936,1010.931
3937,1011.132
3938,1011.333
3939,1011.534
3940,1011.735
3941,1011.936
3942,1012.137
3943,1012.339
3944,1012.54
3945,1012.741
3946,1012.942
3947,1013.143
3948,1013.344
3949,1013.546
3950,1013.747
3951,1013.948
3952,1014.149
3953,1014.35
3954,1014.551
3955,1014.752
3956,1014.954
3957,1015.155
3958,1015.356
3959,1015.557
3960,1015.758
3961,1015.959
3962,1016.161
3963,1016.362
3964,1016.563
3965,1016.764
3966,1016.965
3967,1017.166
3968,1017.367
3969,1017.569
3970,1017.77
3971,1017.971
3972,1018.172
3973,1018.373
3974,1018.574
3975,1018.776
3976,1018.977
3977,1019.178
3978,1019.379
3979,1019.58
3980,1019.781
3981,1019.982
3982,1020.184
3983,1020.385
3984,1020.586
3985,1020.787
3986,1020.988
3987,1021.189
3988,1021.391
3989,1021.592
3990,1021.793
3991,1021.994
3992,1022.195
3993,1022.396
3994,1022.597
3995,1022.799
3996,1023.0
3997,1023.201
3998,1023.402
3999,1023.603
4000,1023.804
4001,1024.006
4002,1024.207
4003,1024.408
4004,1024.609
4005,1024.81
4006,1025.011
4007,1025.212
4008,1025.414
4009,1025.615
4010,1025.816
4011,1026.017
4012,1026.218
4013,1026.419
4014,1026.621
4015,1026.822
4016,1027.023
4017,1027.224
4018,1027.425
4019,1027.626
4020,1027.827
4021,1028.029
4022,1028.23
4023,1028.431
4024,1028.632
4025,1028.833
4026,1029.034
4027,1029.236
4028,1029.437
4029,1029.638
4030,1029.839
4031,1030.04
4032,1030.241
4033,1030.442
4034,1030.644
4035,1030.845
4036,1031.046
4037,1031.247
4038,1031.448
4039,1031.649
4040,1031.851
4041,1032.052
4042,1032.253
4043,1032.454
4044,1032.655
4045,1032.856
4046,1033.057
4047,1033.259
4048,1033.46
4049,1033.661
4050,1033.862
4051,1034.063
4052,1034.264
4053,1034.466
4054,1034.667
4055,1034.868
4056,1035.069
4057,1035.27
4058,1035.471
4059,1035.672
4060,1035.874
4061,1036.075
4062,1036.276
4063,1036.477
4064,1036.678
4065,1036.879
4066,1037.081
4067,1037.282
4068,1037.483
4069,1037.684
4070,1037.885
4071,1038.086
4072,1038.287
4073,1038.489
4074,1038.69
4075,1038.891
4076,1039.092
4077,1039.293
4078,1039.494
4079,1039.696
4080,1039.897
4081,1040.098
4082,1040.299
4083,1040.5
4084,1040.701
4085,1040.902
4086,1041.104
4087,1041.305
4088,1041.506
4089,1041.707
4090,1041.908
4091,1042.109
4092,1042.311
4093,1042.512
4094,1042.713
4095,1042.914
4096,1043.115
